# tabulated DIO electron energy spectrum in {^32}S , in units of electron mass
# from F.Hertzog and D.Alder, Helvetica Physica Acta v53 p53 (1980)
 10   0.1481
 20   0.5021
 30   0.9783
 40   1.525
 50   2.099
 60   2.654
 70   3.144
 80   3.490
 90   3.435
100   2.009
110   3.098e-1
120   2.550e-2
130   2.531e-3
140   3.144e-4
150   4.368e-5
160   6.043e-6
170   7.296e-7
180   6.231e-8
190   2.289e-9
200   3.285e-12
